# Be, 1.848 g/cm^3.
# energy (eV) delta         attenuation length (um)
8400.00  4.83075473E-06  6053.04
8401.00  4.82961696E-06  6055.06
8402.00  4.82847963E-06  6057.07
8403.00  4.82734276E-06  6059.09
8404.00  4.82620499E-06  6061.10
8405.00  4.82506903E-06  6063.12
8406.00  4.82393216E-06  6065.14
8407.00  4.82279711E-06  6067.16
8408.00  4.82165979E-06  6069.17
8409.00  4.82052428E-06  6071.19
8410.00  4.81938923E-06  6073.21
8411.00  4.81825464E-06  6075.22
8412.00  4.81711913E-06  6077.25
8413.00  4.81598499E-06  6079.27
8414.00  4.8148504E-06   6081.28
8415.00  4.81371717E-06  6083.31
8416.00  4.81258348E-06  6085.33
8417.00  4.8114498E-06   6087.34
8418.00  4.81031566E-06  6089.37
8419.00  4.80918334E-06  6091.38
8420.00  4.80805056E-06  6093.41
8421.00  4.8069187E-06   6095.42
8422.00  4.80578638E-06  6097.45
8423.00  4.80465496E-06  6099.47
8424.00  4.80352355E-06  6101.50
8425.00  4.80239214E-06  6103.51
8426.00  4.80125982E-06  6105.54
8427.00  4.80012932E-06  6107.56
8428.00  4.79899882E-06  6109.59
8429.00  4.79786922E-06  6111.61
8430.00  4.79673872E-06  6113.63
8431.00  4.79561004E-06  6115.66
8432.00  4.79448045E-06  6117.68
8433.00  4.79335085E-06  6119.70
8434.00  4.79222172E-06  6121.73
8435.00  4.79109349E-06  6123.76
8436.00  4.78996526E-06  6125.78
8437.00  4.78883749E-06  6127.81
8438.00  4.78770926E-06  6129.84
8439.00  4.78658103E-06  6131.86
8440.00  4.78545326E-06  6133.88
8441.00  4.7843273E-06   6135.92
8442.00  4.78320044E-06  6137.95
8443.00  4.78207403E-06  6139.97
8444.00  4.78094807E-06  6142.00
8445.00  4.77982121E-06  6144.03
8446.00  4.77869617E-06  6146.06
8447.00  4.77757021E-06  6148.09
8448.00  4.77644562E-06  6150.12
8449.00  4.77532058E-06  6152.15
8450.00  4.77419553E-06  6154.17
8451.00  4.7730714E-06   6156.20
8452.00  4.77194726E-06  6158.23
8453.00  4.77082403E-06  6160.26
8454.00  4.76970035E-06  6162.29
8455.00  4.76857531E-06  6164.32
8456.00  4.76745299E-06  6166.36
8457.00  4.76633022E-06  6168.39
8458.00  4.76520881E-06  6170.42
8459.00  4.76408559E-06  6172.45
8460.00  4.76296373E-06  6174.49
8461.00  4.76184186E-06  6176.52
8462.00  4.76072091E-06  6178.56
8463.00  4.75959905E-06  6180.59
8464.00  4.75847764E-06  6182.62
8465.00  4.75735715E-06  6184.66
8466.00  4.7562371E-06   6186.70
8467.00  4.75511661E-06  6188.73
8468.00  4.75399702E-06  6190.76
8469.00  4.75287743E-06  6192.80
8470.00  4.75175875E-06  6194.84
8471.00  4.75063871E-06  6196.87
8472.00  4.74951958E-06  6198.92
8473.00  4.74840135E-06  6200.94
8474.00  4.74728358E-06  6202.98
8475.00  4.74616445E-06  6205.02
8476.00  4.74504714E-06  6207.06
8477.00  4.74392982E-06  6209.09
8478.00  4.7428116E-06   6211.14
8479.00  4.74169519E-06  6213.18
8480.00  4.74057924E-06  6215.21
8481.00  4.73946284E-06  6217.25
8482.00  4.73834552E-06  6219.29
8483.00  4.73723048E-06  6221.33
8484.00  4.73611499E-06  6223.37
8485.00  4.73499813E-06  6225.41
8486.00  4.73388354E-06  6227.45
8487.00  4.73276896E-06  6229.50
8488.00  4.73165392E-06  6231.53
8489.00  4.73053979E-06  6233.58
8490.00  4.72942565E-06  6235.62
8491.00  4.72831152E-06  6237.66
8492.00  4.72719785E-06  6239.70
8493.00  4.72608599E-06  6241.75
8494.00  4.72497186E-06  6243.79
8495.00  4.72385909E-06  6245.82
8496.00  4.72274724E-06  6247.87
8497.00  4.7216331E-06   6249.91
8498.00  4.72052216E-06  6251.96
8499.00  4.71941121E-06  6254.00
8500.00  4.71829844E-06  6256.04
8501.00  4.71718795E-06  6258.10
8502.00  4.71607791E-06  6260.14
8503.00  4.71496696E-06  6262.18
8504.00  4.71385647E-06  6264.23
8505.00  4.71274598E-06  6266.27
8506.00  4.71163548E-06  6268.32
8507.00  4.71052681E-06  6270.37
8508.00  4.70941632E-06  6272.42
8509.00  4.7083081E-06   6274.46
8510.00  4.70719942E-06  6276.51
8511.00  4.70608984E-06  6278.56
8512.00  4.70498208E-06  6280.61
8513.00  4.7038734E-06   6282.66
8514.00  4.70276609E-06  6284.70
8515.00  4.70165969E-06  6286.75
8516.00  4.70055102E-06  6288.80
8517.00  4.69944507E-06  6290.86
8518.00  4.69833685E-06  6292.91
8519.00  4.69723091E-06  6294.95
8520.00  4.69612496E-06  6297.00
8521.00  4.69501856E-06   6299.06
8522.00  4.69391307E-06  6301.10
8523.00  4.69280758E-06  6303.16
8524.00  4.69170209E-06  6305.21
8525.00  4.6905966E-06   6307.26
8526.00  4.68949202E-06  6309.31
8527.00  4.68838789E-06   6311.36
8528.00  4.68728376E-06  6313.42
8529.00  4.68618055E-06  6315.47
8530.00  4.68507596E-06  6317.53
8531.00  4.68397229E-06  6319.58
8532.00  4.68286908E-06  6321.63
8533.00  4.68176722E-06  6323.69
8534.00  4.68066355E-06  6325.73
8535.00  4.67956124E-06   6327.79
8536.00  4.67845939E-06   6329.85
8537.00  4.67735799E-06  6331.90
8538.00  4.67625705E-06  6333.96
8539.00  4.67515429E-06  6336.02
8540.00  4.6740538E-06   6338.07
8541.00  4.67295285E-06  6340.13
8542.00  4.67185282E-06  6342.18
8543.00  4.67075233E-06  6344.25
8544.00  4.6696523E-06   6346.29
8545.00  4.66855226E-06  6348.36
8546.00  4.66745314E-06  6350.42
8547.00  4.66635356E-06  6352.47
8548.00  4.66525489E-06   6354.53
8549.00  4.66415531E-06  6356.59
8550.00  4.66305755E-06  6358.64
8551.00  4.66195888E-06  6360.71
8552.00  4.66086158E-06  6362.77
8553.00  4.65976291E-06  6364.83
8554.00  4.65866606E-06  6366.89
8555.00  4.65756875E-06  6368.94
8556.00  4.65647281E-06  6371.01
8557.00  4.6553746E-06   6373.08
8558.00  4.65427911E-06   6375.13
8559.00  4.6531818E-06   6377.20
8560.00  4.65208768E-06  6379.25
8561.00  4.65099083E-06  6381.32
8562.00  4.64989489E-06   6383.38
8563.00  4.64880031E-06  6385.45
8564.00  4.64770483E-06  6387.50
8565.00  4.64661161E-06  6389.56
8566.00  4.64551658E-06  6391.64
8567.00  4.64442292E-06   6393.69
8568.00  4.64332788E-06  6395.77
8569.00  4.64223604E-06  6397.83
8570.00  4.64114191E-06  6399.89
8571.00  4.64004916E-06  6401.96
8572.00  4.63895594E-06  6404.02
8573.00  4.63786319E-06  6406.08
8574.00  4.63677225E-06  6408.15
8575.00  4.63567903E-06  6410.22
8576.00  4.63458809E-06  6412.28
8577.00  4.63349625E-06  6414.36
8578.00  4.63240394E-06  6416.42
8579.00  4.63131346E-06  6418.49
8580.00  4.63022207E-06  6420.55
8581.00  4.62913249E-06  6422.62
8582.00  4.62804201E-06  6424.69
8583.00  4.62695243E-06  6426.76
8584.00  4.6258624E-06   6428.83
8585.00  4.62477237E-06  6430.90
8586.00  4.62368416E-06   6432.96
8587.00  4.62259504E-06  6435.03
8588.00  4.62150638E-06  6437.10
8589.00  4.62041862E-06  6439.18
8590.00  4.61933041E-06   6441.25
8591.00  4.6182422E-06   6443.32
8592.00  4.6171549E-06   6445.39
8593.00  4.61606714E-06   6447.46
8594.00  4.61498121E-06  6449.53
8595.00  4.61389345E-06  6451.60
8596.00  4.61280661E-06   6453.68
8597.00  4.61172067E-06  6455.75
8598.00  4.61063428E-06  6457.82
8599.00  4.6095488E-06   6459.90
8600.00  4.60846331E-06  6461.97
